#  E (eV)   dos(E)     Int dos(E) EFermi =   -0.060 eV
 -28.078  0.4846E-06  0.4846E-07
 -27.978  0.6766E-05  0.7251E-06
 -27.878  0.7259E-04  0.7984E-05
 -27.778  0.5993E-03  0.6791E-04
 -27.678  0.3814E-02  0.4493E-03
 -27.578  0.1875E-01  0.2325E-02
 -27.478  0.7151E-01  0.9476E-02
 -27.378  0.2126E+00  0.3074E-01
 -27.278  0.4970E+00  0.8044E-01
 -27.178  0.9262E+00  0.1731E+00
 -27.078  0.1407E+01  0.3138E+00
 -26.978  0.1808E+01  0.4946E+00
 -26.878  0.2070E+01  0.7016E+00
 -26.778  0.2250E+01  0.9266E+00
 -26.678  0.2459E+01  0.1173E+01
 -26.578  0.2795E+01  0.1452E+01
 -26.478  0.3335E+01  0.1786E+01
 -26.378  0.4104E+01  0.2196E+01
 -26.278  0.4936E+01  0.2690E+01
 -26.178  0.5352E+01  0.3225E+01
 -26.078  0.4783E+01  0.3703E+01
 -25.978  0.3168E+01  0.4020E+01
 -25.878  0.1230E+01  0.4143E+01
 -25.778 -0.1157E+00  0.4131E+01
 -25.678 -0.5599E+00  0.4075E+01
 -25.578 -0.4436E+00  0.4031E+01
 -25.478 -0.2146E+00  0.4009E+01
 -25.378 -0.7283E-01  0.4002E+01
 -25.278 -0.1812E-01  0.4000E+01
 -25.178 -0.3367E-02  0.4000E+01
 -25.078 -0.4720E-03  0.4000E+01
 -24.978 -0.5015E-04  0.4000E+01
 -24.878 -0.4051E-05  0.4000E+01
 -24.778 -0.2492E-06  0.4000E+01
 -24.678 -0.1168E-07  0.4000E+01
 -24.578 -0.4177E-09  0.4000E+01
 -24.478 -0.1139E-10  0.4000E+01
 -24.378 -0.2371E-12  0.4000E+01
 -24.278 -0.3767E-14  0.4000E+01
 -24.178 -0.4567E-16  0.4000E+01
 -24.078 -0.4227E-18  0.4000E+01
 -23.978 -0.2985E-20  0.4000E+01
 -23.878 -0.1610E-22  0.4000E+01
 -23.778 -0.6624E-25  0.4000E+01
 -23.678 -0.2081E-27  0.4000E+01
 -23.578  0.3863E-29  0.4000E+01
 -23.478  0.1474E-26  0.4000E+01
 -23.378  0.3805E-24  0.4000E+01
 -23.278  0.7507E-22  0.4000E+01
 -23.178  0.1131E-19  0.4000E+01
 -23.078  0.1303E-17  0.4000E+01
 -22.978  0.1147E-15  0.4000E+01
 -22.878  0.7710E-14  0.4000E+01
 -22.778  0.3962E-12  0.4000E+01
 -22.678  0.1556E-10  0.4000E+01
 -22.578  0.4669E-09  0.4000E+01
 -22.478  0.1071E-07  0.4000E+01
 -22.378  0.1880E-06  0.4000E+01
 -22.278  0.2524E-05  0.4000E+01
 -22.178  0.2595E-04  0.4000E+01
 -22.078  0.2045E-03  0.4000E+01
 -21.978  0.1237E-02  0.4000E+01
 -21.878  0.5755E-02  0.4001E+01
 -21.778  0.2066E-01  0.4003E+01
 -21.678  0.5752E-01  0.4009E+01
 -21.578  0.1252E+00  0.4021E+01
 -21.478  0.2160E+00  0.4043E+01
 -21.378  0.3021E+00  0.4073E+01
 -21.278  0.3550E+00  0.4108E+01
 -21.178  0.3694E+00  0.4145E+01
 -21.078  0.3619E+00  0.4181E+01
 -20.978  0.3511E+00  0.4217E+01
 -20.878  0.3451E+00  0.4251E+01
 -20.778  0.3429E+00  0.4285E+01
 -20.678  0.3416E+00  0.4320E+01
 -20.578  0.3422E+00  0.4354E+01
 -20.478  0.3445E+00  0.4388E+01
 -20.378  0.3429E+00  0.4423E+01
 -20.278  0.3397E+00  0.4457E+01
 -20.178  0.3444E+00  0.4491E+01
 -20.078  0.3508E+00  0.4526E+01
 -19.978  0.3442E+00  0.4560E+01
 -19.878  0.3346E+00  0.4594E+01
 -19.778  0.3437E+00  0.4628E+01
 -19.678  0.3606E+00  0.4664E+01
 -19.578  0.3551E+00  0.4700E+01
 -19.478  0.3320E+00  0.4733E+01
 -19.378  0.3298E+00  0.4766E+01
 -19.278  0.3581E+00  0.4802E+01
 -19.178  0.3782E+00  0.4840E+01
 -19.078  0.3585E+00  0.4875E+01
 -18.978  0.3235E+00  0.4908E+01
 -18.878  0.3235E+00  0.4940E+01
 -18.778  0.3644E+00  0.4977E+01
 -18.678  0.3972E+00  0.5016E+01
 -18.578  0.3818E+00  0.5055E+01
 -18.478  0.3391E+00  0.5088E+01
 -18.378  0.3318E+00  0.5122E+01
 -18.278  0.4034E+00  0.5162E+01
 -18.178  0.5338E+00  0.5215E+01
 -18.078  0.6563E+00  0.5281E+01
 -17.978  0.7223E+00  0.5353E+01
 -17.878  0.7416E+00  0.5427E+01
 -17.778  0.7591E+00  0.5503E+01
 -17.678  0.8055E+00  0.5584E+01
 -17.578  0.8630E+00  0.5670E+01
 -17.478  0.8816E+00  0.5758E+01
 -17.378  0.8439E+00  0.5843E+01
 -17.278  0.7989E+00  0.5923E+01
 -17.178  0.8114E+00  0.6004E+01
 -17.078  0.8939E+00  0.6093E+01
 -16.978  0.9870E+00  0.6192E+01
 -16.878  0.9949E+00  0.6291E+01
 -16.778  0.8786E+00  0.6379E+01
 -16.678  0.7220E+00  0.6451E+01
 -16.578  0.6484E+00  0.6516E+01
 -16.478  0.6709E+00  0.6583E+01
 -16.378  0.6959E+00  0.6653E+01
 -16.278  0.6617E+00  0.6719E+01
 -16.178  0.5993E+00  0.6779E+01
 -16.078  0.5572E+00  0.6835E+01
 -15.978  0.5408E+00  0.6889E+01
 -15.878  0.5342E+00  0.6942E+01
 -15.778  0.5252E+00  0.6995E+01
 -15.678  0.5055E+00  0.7045E+01
 -15.578  0.4892E+00  0.7094E+01
 -15.478  0.5246E+00  0.7147E+01
 -15.378  0.6453E+00  0.7211E+01
 -15.278  0.8096E+00  0.7292E+01
 -15.178  0.9283E+00  0.7385E+01
 -15.078  0.9534E+00  0.7480E+01
 -14.978  0.9056E+00  0.7571E+01
 -14.878  0.8248E+00  0.7653E+01
 -14.778  0.7234E+00  0.7726E+01
 -14.678  0.5930E+00  0.7785E+01
 -14.578  0.4570E+00  0.7831E+01
 -14.478  0.3916E+00  0.7870E+01
 -14.378  0.4533E+00  0.7915E+01
 -14.278  0.6101E+00  0.7976E+01
 -14.178  0.7765E+00  0.8054E+01
 -14.078  0.8938E+00  0.8143E+01
 -13.978  0.9583E+00  0.8239E+01
 -13.878  0.9836E+00  0.8337E+01
 -13.778  0.9694E+00  0.8434E+01
 -13.678  0.9200E+00  0.8526E+01
 -13.578  0.8504E+00  0.8611E+01
 -13.478  0.7573E+00  0.8687E+01
 -13.378  0.6418E+00  0.8751E+01
 -13.278  0.5671E+00  0.8808E+01
 -13.178  0.6175E+00  0.8870E+01
 -13.078  0.7870E+00  0.8948E+01
 -12.978  0.9660E+00  0.9045E+01
 -12.878  0.1046E+01  0.9150E+01
 -12.778  0.1001E+01  0.9250E+01
 -12.678  0.8863E+00  0.9338E+01
 -12.578  0.7815E+00  0.9416E+01
 -12.478  0.7419E+00  0.9491E+01
 -12.378  0.7614E+00  0.9567E+01
 -12.278  0.7965E+00  0.9646E+01
 -12.178  0.8438E+00  0.9731E+01
 -12.078  0.9502E+00  0.9826E+01
 -11.978  0.1116E+01  0.9937E+01
 -11.878  0.1266E+01  0.1006E+02
 -11.778  0.1351E+01  0.1020E+02
 -11.678  0.1395E+01  0.1034E+02
 -11.578  0.1443E+01  0.1048E+02
 -11.478  0.1513E+01  0.1063E+02
 -11.378  0.1552E+01  0.1079E+02
 -11.278  0.1443E+01  0.1093E+02
 -11.178  0.1145E+01  0.1105E+02
 -11.078  0.8176E+00  0.1113E+02
 -10.978  0.6676E+00  0.1120E+02
 -10.878  0.7295E+00  0.1127E+02
 -10.778  0.8741E+00  0.1136E+02
 -10.678  0.9703E+00  0.1145E+02
 -10.578  0.9814E+00  0.1155E+02
 -10.478  0.9674E+00  0.1165E+02
 -10.378  0.1052E+01  0.1175E+02
 -10.278  0.1360E+01  0.1189E+02
 -10.178  0.1895E+01  0.1208E+02
 -10.078  0.2467E+01  0.1233E+02
  -9.978  0.2793E+01  0.1261E+02
  -9.878  0.2738E+01  0.1288E+02
  -9.778  0.2400E+01  0.1312E+02
  -9.678  0.2004E+01  0.1332E+02
  -9.578  0.1786E+01  0.1350E+02
  -9.478  0.1925E+01  0.1369E+02
  -9.378  0.2433E+01  0.1393E+02
  -9.278  0.3068E+01  0.1424E+02
  -9.178  0.3436E+01  0.1458E+02
  -9.078  0.3306E+01  0.1492E+02
  -8.978  0.2815E+01  0.1520E+02
  -8.878  0.2312E+01  0.1543E+02
  -8.778  0.2053E+01  0.1563E+02
  -8.678  0.2093E+01  0.1584E+02
  -8.578  0.2327E+01  0.1608E+02
  -8.478  0.2558E+01  0.1633E+02
  -8.378  0.2617E+01  0.1659E+02
  -8.278  0.2510E+01  0.1684E+02
  -8.178  0.2379E+01  0.1708E+02
  -8.078  0.2336E+01  0.1732E+02
  -7.978  0.2423E+01  0.1756E+02
  -7.878  0.2644E+01  0.1782E+02
  -7.778  0.2897E+01  0.1811E+02
  -7.678  0.2980E+01  0.1841E+02
  -7.578  0.2780E+01  0.1869E+02
  -7.478  0.2425E+01  0.1893E+02
  -7.378  0.2142E+01  0.1914E+02
  -7.278  0.2031E+01  0.1935E+02
  -7.178  0.2035E+01  0.1955E+02
  -7.078  0.2056E+01  0.1976E+02
  -6.978  0.2055E+01  0.1996E+02
  -6.878  0.2073E+01  0.2017E+02
  -6.778  0.2180E+01  0.2039E+02
  -6.678  0.2394E+01  0.2063E+02
  -6.578  0.2648E+01  0.2089E+02
  -6.478  0.2883E+01  0.2118E+02
  -6.378  0.3094E+01  0.2149E+02
  -6.278  0.3215E+01  0.2181E+02
  -6.178  0.3119E+01  0.2212E+02
  -6.078  0.2798E+01  0.2240E+02
  -5.978  0.2440E+01  0.2265E+02
  -5.878  0.2252E+01  0.2287E+02
  -5.778  0.2275E+01  0.2310E+02
  -5.678  0.2386E+01  0.2334E+02
  -5.578  0.2448E+01  0.2358E+02
  -5.478  0.2427E+01  0.2383E+02
  -5.378  0.2375E+01  0.2406E+02
  -5.278  0.2340E+01  0.2430E+02
  -5.178  0.2314E+01  0.2453E+02
  -5.078  0.2250E+01  0.2475E+02
  -4.978  0.2140E+01  0.2497E+02
  -4.878  0.2093E+01  0.2518E+02
  -4.778  0.2302E+01  0.2541E+02
  -4.678  0.2894E+01  0.2570E+02
  -4.578  0.3752E+01  0.2607E+02
  -4.478  0.4452E+01  0.2652E+02
  -4.378  0.4536E+01  0.2697E+02
  -4.278  0.3949E+01  0.2737E+02
  -4.178  0.3086E+01  0.2767E+02
  -4.078  0.2391E+01  0.2791E+02
  -3.978  0.2016E+01  0.2811E+02
  -3.878  0.1889E+01  0.2830E+02
  -3.778  0.1895E+01  0.2849E+02
  -3.678  0.1935E+01  0.2869E+02
  -3.578  0.1910E+01  0.2888E+02
  -3.478  0.1758E+01  0.2905E+02
  -3.378  0.1506E+01  0.2920E+02
  -3.278  0.1238E+01  0.2933E+02
  -3.178  0.1009E+01  0.2943E+02
  -3.078  0.8200E+00  0.2951E+02
  -2.978  0.6606E+00  0.2958E+02
  -2.878  0.5459E+00  0.2963E+02
  -2.778  0.4860E+00  0.2968E+02
  -2.678  0.4609E+00  0.2973E+02
  -2.578  0.4415E+00  0.2977E+02
  -2.478  0.4188E+00  0.2981E+02
  -2.378  0.3979E+00  0.2985E+02
  -2.278  0.3783E+00  0.2989E+02
  -2.178  0.3530E+00  0.2992E+02
  -2.078  0.3144E+00  0.2996E+02
  -1.978  0.2550E+00  0.2998E+02
  -1.878  0.1720E+00  0.3000E+02
  -1.778  0.7952E-01  0.3001E+02
  -1.678  0.6875E-02  0.3001E+02
  -1.578 -0.2629E-01  0.3001E+02
  -1.478 -0.2690E-01  0.3000E+02
  -1.378 -0.1553E-01  0.3000E+02
  -1.278 -0.6198E-02  0.3000E+02
  -1.178 -0.1807E-02  0.3000E+02
  -1.078 -0.3936E-03  0.3000E+02
  -0.978 -0.6469E-04  0.3000E+02
  -0.878 -0.8061E-05  0.3000E+02
  -0.778 -0.7633E-06  0.3000E+02
  -0.678 -0.5500E-07  0.3000E+02
  -0.578 -0.3018E-08  0.3000E+02
  -0.478 -0.1262E-09  0.3000E+02
  -0.378 -0.4022E-11  0.3000E+02
  -0.278 -0.9773E-13  0.3000E+02
  -0.178 -0.1811E-14  0.3000E+02
  -0.078 -0.2560E-16  0.3000E+02
   0.022 -0.2760E-18  0.3000E+02
   0.122 -0.2271E-20  0.3000E+02
   0.222 -0.1294E-22  0.3000E+02
   0.322  0.2270E-21  0.3000E+02
   0.422  0.2993E-19  0.3000E+02
   0.522  0.3014E-17  0.3000E+02
   0.622  0.2319E-15  0.3000E+02
   0.722  0.1364E-13  0.3000E+02
   0.822  0.6146E-12  0.3000E+02
   0.922  0.2122E-10  0.3000E+02
   1.022  0.5621E-09  0.3000E+02
   1.122  0.1144E-07  0.3000E+02
   1.222  0.1793E-06  0.3000E+02
   1.322  0.2164E-05  0.3000E+02
   1.422  0.2015E-04  0.3000E+02
   1.522  0.1449E-03  0.3000E+02
   1.622  0.8056E-03  0.3000E+02
   1.722  0.3466E-02  0.3000E+02
   1.822  0.1158E-01  0.3000E+02
   1.922  0.3020E-01  0.3000E+02
   2.022  0.6227E-01  0.3001E+02
   2.122  0.1037E+00  0.3002E+02
   2.222  0.1441E+00  0.3004E+02
   2.322  0.1757E+00  0.3005E+02
   2.422  0.2014E+00  0.3007E+02
   2.522  0.2385E+00  0.3010E+02
   2.622  0.3172E+00  0.3013E+02
   2.722  0.4775E+00  0.3018E+02
   2.822  0.7448E+00  0.3025E+02
   2.922  0.1077E+01  0.3036E+02
   3.022  0.1336E+01  0.3049E+02
   3.122  0.1365E+01  0.3063E+02
   3.222  0.1140E+01  0.3074E+02
   3.322  0.8400E+00  0.3083E+02
   3.422  0.6868E+00  0.3090E+02
   3.522  0.6999E+00  0.3097E+02
   3.622  0.7026E+00  0.3104E+02
   3.722  0.5959E+00  0.3110E+02
   3.822  0.5019E+00  0.3115E+02
   3.922  0.5976E+00  0.3121E+02
   4.022  0.9153E+00  0.3130E+02
   4.122  0.1359E+01  0.3143E+02
   4.222  0.1856E+01  0.3162E+02
   4.322  0.2409E+01  0.3186E+02
   4.422  0.2967E+01  0.3216E+02
   4.522  0.3321E+01  0.3249E+02
   4.622  0.3242E+01  0.3281E+02
   4.722  0.2719E+01  0.3308E+02
   4.822  0.1993E+01  0.3328E+02
   4.922  0.1353E+01  0.3342E+02
   5.022  0.9591E+00  0.3351E+02
   5.122  0.8360E+00  0.3360E+02
   5.222  0.9447E+00  0.3369E+02
   5.322  0.1201E+01  0.3381E+02
   5.422  0.1478E+01  0.3396E+02
   5.522  0.1674E+01  0.3413E+02
   5.622  0.1804E+01  0.3431E+02
   5.722  0.1980E+01  0.3451E+02
   5.822  0.2252E+01  0.3473E+02
   5.922  0.2500E+01  0.3498E+02
   6.022  0.2560E+01  0.3524E+02
   6.122  0.2408E+01  0.3548E+02
   6.222  0.2187E+01  0.3570E+02
   6.322  0.2047E+01  0.3590E+02
   6.422  0.1995E+01  0.3610E+02
   6.522  0.1943E+01  0.3630E+02
   6.622  0.1870E+01  0.3648E+02
   6.722  0.1859E+01  0.3667E+02
   6.822  0.1978E+01  0.3687E+02
   6.922  0.2204E+01  0.3709E+02
   7.022  0.2472E+01  0.3733E+02
   7.122  0.2706E+01  0.3760E+02
   7.222  0.2865E+01  0.3789E+02
   7.322  0.2984E+01  0.3819E+02
   7.422  0.3120E+01  0.3850E+02
   7.522  0.3239E+01  0.3883E+02
   7.622  0.3247E+01  0.3915E+02
   7.722  0.3138E+01  0.3946E+02
   7.822  0.3012E+01  0.3977E+02
   7.922  0.2968E+01  0.4006E+02
   8.022  0.3030E+01  0.4037E+02
   8.122  0.3138E+01  0.4068E+02
   8.222  0.3173E+01  0.4100E+02
   8.322  0.3018E+01  0.4130E+02
   8.422  0.2690E+01  0.4157E+02
   8.522  0.2374E+01  0.4180E+02
   8.622  0.2278E+01  0.4203E+02
   8.722  0.2443E+01  0.4228E+02
   8.822  0.2736E+01  0.4255E+02
   8.922  0.2966E+01  0.4285E+02
   9.022  0.3002E+01  0.4315E+02
   9.122  0.2855E+01  0.4343E+02
   9.222  0.2702E+01  0.4370E+02
   9.322  0.2715E+01  0.4397E+02
   9.422  0.2866E+01  0.4426E+02
   9.522  0.2949E+01  0.4456E+02
   9.622  0.2837E+01  0.4484E+02
   9.722  0.2627E+01  0.4510E+02
   9.822  0.2526E+01  0.4535E+02
   9.922  0.2638E+01  0.4562E+02
  10.022  0.2875E+01  0.4591E+02
  10.122  0.3062E+01  0.4621E+02
  10.222  0.3105E+01  0.4652E+02
  10.322  0.3050E+01  0.4683E+02
  10.422  0.2990E+01  0.4713E+02
  10.522  0.2962E+01  0.4742E+02
  10.622  0.2942E+01  0.4772E+02
  10.722  0.2909E+01  0.4801E+02
  10.822  0.2916E+01  0.4830E+02
  10.922  0.3039E+01  0.4860E+02
  11.022  0.3252E+01  0.4893E+02
  11.122  0.3427E+01  0.4927E+02
  11.222  0.3468E+01  0.4962E+02
  11.322  0.3442E+01  0.4996E+02
  11.422  0.3514E+01  0.5031E+02
  11.522  0.3763E+01  0.5069E+02
  11.622  0.4105E+01  0.5110E+02
  11.722  0.4369E+01  0.5154E+02
  11.822  0.4423E+01  0.5198E+02
  11.922  0.4309E+01  0.5241E+02
  12.022  0.4240E+01  0.5283E+02
  12.122  0.4357E+01  0.5327E+02
  12.222  0.4510E+01  0.5372E+02
  12.322  0.4399E+01  0.5416E+02
  12.422  0.3894E+01  0.5455E+02
  12.522  0.3159E+01  0.5487E+02
  12.622  0.2500E+01  0.5512E+02
  12.722  0.2126E+01  0.5533E+02
  12.822  0.2041E+01  0.5553E+02
  12.922  0.2122E+01  0.5575E+02
  13.022  0.2254E+01  0.5597E+02
  13.122  0.2363E+01  0.5621E+02
  13.222  0.2372E+01  0.5644E+02
  13.322  0.2206E+01  0.5666E+02
  13.422  0.1874E+01  0.5685E+02
  13.522  0.1496E+01  0.5700E+02
  13.622  0.1242E+01  0.5713E+02
  13.722  0.1218E+01  0.5725E+02
  13.822  0.1395E+01  0.5739E+02
  13.922  0.1644E+01  0.5755E+02
  14.022  0.1824E+01  0.5773E+02
  14.122  0.1849E+01  0.5792E+02
  14.222  0.1721E+01  0.5809E+02
  14.322  0.1547E+01  0.5825E+02
  14.422  0.1464E+01  0.5839E+02
  14.522  0.1498E+01  0.5854E+02
  14.622  0.1528E+01  0.5870E+02
  14.722  0.1454E+01  0.5884E+02
  14.822  0.1316E+01  0.5897E+02
  14.922  0.1196E+01  0.5909E+02
  15.022  0.1113E+01  0.5920E+02
  15.122  0.1077E+01  0.5931E+02
  15.222  0.1115E+01  0.5942E+02
  15.322  0.1179E+01  0.5954E+02
  15.422  0.1149E+01  0.5966E+02
  15.522  0.9717E+00  0.5975E+02
  15.622  0.7261E+00  0.5982E+02
  15.722  0.5303E+00  0.5988E+02
  15.822  0.4304E+00  0.5992E+02
  15.922  0.3781E+00  0.5996E+02
  16.022  0.2985E+00  0.5999E+02
  16.122  0.1745E+00  0.6001E+02
  16.222  0.5262E-01  0.6001E+02
  16.322 -0.2064E-01  0.6001E+02
  16.422 -0.4027E-01  0.6001E+02
  16.522 -0.3034E-01  0.6000E+02
  16.622 -0.1519E-01  0.6000E+02
  16.722 -0.5512E-02  0.6000E+02
  16.822 -0.1488E-02  0.6000E+02
